##TITLE= SPLICCO spectrum (File: d:\3n15.jdx)
##JCAMP-DX= 4.24
##DATE= 1.3.2022
##TIME= 12:15:23
##DATA TYPE= INFRARED SPECTRUM
##OWNER= Public Domain
##RESOLUTION= 2.0
##DELTAX= 1.00000000
##XUNITS= ARBITRARY UNITS
##YUNITS= ARBITRARY UNITS
##APPLICATION= SPLICCO
$$SHOW_VERTICAL_FLIPPED= 0
$$SHOW_HORIZONTAL_FLIPPED= 0
##XFACTOR= 1.0
##YFACTOR= 0.000001
##FIRSTX= 1.000
##LASTX= 2048.000
##NPOINTS= 2048
##FIRSTY= 0.001907
##XYDATA= (X++(Y..Y))
1.000  1906 1853 1934 1810 1982 2027 2173 1956
9.000  2081 2020 2180 2068 2159 2073 2125 2217
17.000  2240 2317 2178 2193 2006 2146 2367 2300
25.000  2189 2206 2400 2407 2345 2339 2545 2438
33.000  2375 2301 2111 2189 2482 2247 2150 2166
41.000  2134 2354 2326 2338 2202 2294 2281 2250
49.000  2313 2512 2601 2624 2268 2410 2384 2350
57.000  2528 2494 2542 2456 2564 2833 2646 2474
65.000  2698 2589 3070 2833 2779 2926 2792 2825
73.000  2616 2685 2729 2707 2787 2998 2871 2901
81.000  2950 2975 2980 2658 2976 3019 2994 2893
89.000  2876 2894 2872 2847 2932 2932 2997 3145
97.000  2926 2867 3004 2724 3164 2927 2986 2821
105.000  3062 3126 2955 2852 2926 2971 2907 3060
113.000  3056 3126 3100 3132 3243 3036 2958 3144
121.000  3308 3302 3136 3395 3105 3171 3265 3038
129.000  3266 3313 3425 3310 3276 3361 3394 3320
137.000  3353 3361 3321 3419 3206 3359 3055 3065
145.000  3162 3292 3054 3290 3175 3270 3149 3236
153.000  3186 3135 3290 3289 3111 3305 3205 3279
161.000  3158 3209 3418 3201 3369 3054 3255 3326
169.000  3186 3265 3400 3312 3305 3432 3335 3298
177.000  3222 3277 3255 3514 3485 3413 3370 3324
185.000  3234 3320 3510 3481 3479 3285 3445 3564
193.000  3442 3408 3407 3335 3369 3472 3391 3414
201.000  3513 3357 3258 3557 3459 3475 3427 3341
209.000  3376 3570 3150 3411 3624 3490 3463 3340
217.000  3476 3524 3470 3594 3576 3543 3390 3504
225.000  3577 3571 3440 3529 3490 3642 3567 3656
233.000  3421 3458 3680 3520 3524 3716 3510 3570
241.000  3411 3502 3440 3561 3735 3351 3467 3424
249.000  3542 3544 3414 3528 3535 3594 3594 3632
257.000  3494 3614 3847 3648 3557 3596 3519 3549
265.000  3551 3589 3574 3608 3536 3645 3576 3636
273.000  3679 3866 3738 3669 3698 3901 3776 3781
281.000  3821 3757 3624 3592 3626 3767 3592 3532
289.000  3496 3581 3641 3661 3659 3595 3565 3527
297.000  3596 3539 3706 3388 3676 3620 3512 3629
305.000  3658 3814 3772 3633 3822 3848 3660 3511
313.000  3823 3629 4011 3824 3631 3807 3708 3805
321.000  3768 3789 3882 4194 3828 3952 3894 4057
329.000  3935 4227 3710 3793 4129 3780 4069 3866
337.000  4026 3847 4103 4104 3862 3953 3899 3803
345.000  4014 3925 4034 3797 3922 3921 4011 3963
353.000  3812 3773 3816 4102 3915 4003 4045 3954
361.000  4069 4018 3942 3934 3970 4063 4052 3823
369.000  4018 4185 3836 3936 4003 3934 3982 3985
377.000  3981 4160 4060 4011 3975 4077 3970 4065
385.000  4162 3996 3879 3925 3994 3962 4045 4051
393.000  3997 4062 4020 4028 4046 4111 4039 4058
401.000  4109 3911 4072 4285 3977 4079 3977 4181
409.000  4024 3970 3996 4118 4097 4156 4064 4111
417.000  4225 4152 4035 4039 4079 4111 4193 4170
425.000  4160 4048 4183 4005 4260 4152 4073 4140
433.000  3982 4145 3876 4167 4167 3800 4172 4070
441.000  4001 4075 4022 4043 4045 4261 3959 4104
449.000  4130 4049 4184 4122 3988 4148 4300 4092
457.000  4032 4040 4094 3988 4101 3784 3837 4009
465.000  3979 4046 3942 4245 3872 4211 3979 4062
473.000  4063 4267 3988 4049 4125 4171 4015 3918
481.000  3764 4093 3981 4009 3878 3911 3940 3937
489.000  3947 4146 4064 4177 4127 4048 3967 4009
497.000  3987 3992 4157 3986 3973 4170 3887 3814
505.000  4115 4056 3939 4069 4152 4044 4061 3955
513.000  3812 3898 3989 3786 4097 3893 3981 3832
521.000  4033 3960 4048 4123 3952 3901 4026 3837
529.000  3916 4060 4013 4042 3912 3985 3873 3760
537.000  3910 3759 4116 3858 3841 3863 4103 3841
545.000  3850 4116 4033 3938 3764 3926 3983 3877
553.000  4165 4029 3915 4114 4097 4038 3812 4076
561.000  3887 3894 3985 3919 3947 4086 3836 4007
569.000  3967 4182 3855 3893 4058 3873 3891 3930
577.000  3943 4076 4003 3919 3854 3935 4086 4089
585.000  4103 3973 3978 3791 3996 3940 3928 4099
593.000  3861 4164 3899 4032 3844 3783 3919 3967
601.000  3945 3783 4070 3924 4050 4073 4186 3835
609.000  4095 3927 3866 3999 3828 3793 3820 3918
617.000  4013 3958 3781 4124 3831 4008 4131 4089
625.000  3947 4060 3945 3801 3861 4043 3911 4036
633.000  3909 3775 4008 3965 4072 3977 3946 3982
641.000  4049 3885 3923 3969 4045 3847 4115 3852
649.000  3991 3857 3984 4046 4136 4073 4057 3980
657.000  4016 3951 3884 4096 3961 3916 4012 3928
665.000  3825 4077 3826 4052 4170 4026 4061 4237
673.000  4034 4159 4224 4115 3770 4063 4200 3883
681.000  4035 3967 4029 3898 4105 3870 3947 3855
689.000  3927 3877 3932 4031 3925 3805 4166 3925
697.000  3943 4112 3967 3924 3927 3994 4034 3977
705.000  4057 3930 3815 3818 3970 3997 4147 3947
713.000  4220 4212 4030 3897 4098 4205 3994 3897
721.000  3928 3944 4052 3994 3995 4166 3838 4127
729.000  4000 4103 4266 4043 3949 4186 3941 4048
737.000  3985 3991 4016 4092 3984 4005 3792 4107
745.000  3943 4172 4064 4112 4153 3986 4140 4012
753.000  4009 3982 4216 4185 4197 3959 4117 4278
761.000  4170 4009 3959 4096 3848 4020 3969 4164
769.000  4099 4016 4213 4059 3913 4008 3965 4006
777.000  3892 4084 4326 4058 4322 3893 4071 4201
785.000  4202 4221 4182 4117 3940 4342 4137 4100
793.000  4187 4117 4200 3972 4042 4004 4077 4153
801.000  4280 4328 4223 4080 3977 4276 4052 4132
809.000  4249 4223 4364 4306 4340 4198 4305 4271
817.000  4166 4200 4176 4265 4378 4255 4329 4392
825.000  4498 4180 4224 4191 4015 4282 4305 4357
833.000  4242 4117 4305 4315 4256 4251 4265 4491
841.000  4335 4378 4335 4300 4232 4207 4145 4445
849.000  4067 4189 4203 4140 4311 4425 4173 4427
857.000  4372 4364 4182 4242 4582 4507 4438 4313
865.000  4581 4459 4279 4359 4448 4352 4633 4497
873.000  4529 4488 4710 4481 4709 4686 4512 4590
881.000  4830 4585 4649 4588 4528 4635 4706 4696
889.000  4637 4917 4859 4494 4622 4649 4630 4592
897.000  4611 4627 4935 4605 4789 4590 4622 4701
905.000  4840 4786 4896 4930 5080 4864 4951 5083
913.000  4987 4911 4928 5062 4958 4881 5012 4900
921.000  4985 5000 5124 5023 5077 5152 5026 5275
929.000  5159 5127 5352 5265 5222 5264 5389 5338
937.000  5206 5339 5255 5156 5313 5228 5203 5068
945.000  5201 5240 5157 5305 5403 5380 5225 5244
953.000  5430 5200 5465 5442 5434 5478 5276 5358
961.000  5250 5364 5486 5825 5492 5607 5406 5325
969.000  5237 5676 5574 5538 5750 5744 6042 6132
977.000  6059 5946 6251 5942 5992 6330 6328 6188
985.000  6554 6577 6741 6698 6721 6944 6758 6976
993.000  7194 7111 7445 7045 7196 6964 6870 6626
1001.000  6589 6691 6740 6701 6524 6447 6640 6931
1009.000  6919 6776 6779 7272 7445 7461 7298 7270
1017.000  7103 7136 7000 7270 7343 7190 7038 7271
1025.000  7332 7484 7584 7530 7444 7690 7685 7710
1033.000  8059 7999 8414 8372 8001 7862 8091 8390
1041.000  8422 7898 8140 8354 8073 8307 8394 8184
1049.000  8024 8640 8754 8645 8242 8055 8360 8139
1057.000  8393 8419 7992 8415 9430 9584 8930 9509
1065.000  9621 11332 11050 17701 13559 14743 11425 8748
1073.000  8761 8782 8857 8440 8839 8540 8276 8342
1081.000  8637 8912 8929 8598 8618 8292 8417 8685
1089.000  9021 10809 11176 10651 9228 8881 9149 8787
1097.000  8709 8642 8812 8814 8648 9002 8437 8527
1105.000  8687 8707 9258 9640 9577 9357 8982 8509
1113.000  8868 8972 9643 9348 9246 9376 9329 9966
1121.000  10162 10162 10177 10255 9868 10161 10428 10955
1129.000  11662 12050 11909 11953 12713 13010 13691 15071
1137.000  15940 16561 16533 16993 17448 17596 18067 18734
1145.000  19738 19984 21020 21955 22127 21226 21475 21428
1153.000  21384 20496 19833 20523 22099 23549 24041 25612
1161.000  26816 28087 28036 29081 27092 27812 27448 28813
1169.000  29783 30708 30954 32869 35039 37124 37830 38496
1177.000  40179 43234 47490 51828 54935 57660 62130 65367
1185.000  69516 73651 81395 88346 96056 107119 117514 129113
1193.000  143347 159820 177070 197590 223466 249988 276725 305663
1201.000  334848 368405 409262 450283 495841 537503 579343 617409
1209.000  655769 691409 725235 751471 773128 788722 799647 803913
1217.000  803392 791604 773392 750177 722293 691106 658931 627619
1225.000  596085 573528 564703 570382 591315 622382 657126 688619
1233.000  718719 742555 758280 762832 754042 728059 685152 635850
1241.000  594529 569447 569145 590598 626009 665090 697508 723481
1249.000  735633 734420 715048 680330 633861 593453 578535 594705
1257.000  636538 684210 715008 718455 693926 656506 619025 607327
1265.000  623907 655452 682457 692740 687344 660817 629856 614898
1273.000  618791 636041 655062 664110 661769 650591 636430 621887
1281.000  618902 626700 636707 644892 646022 637407 621848 608365
1289.000  600036 605004 617507 629157 632509 625641 610274 594440
1297.000  594224 604108 622171 636620 640179 627121 605807 593712
1305.000  600107 625123 655948 664817 650897 621860 594441 583322
1313.000  605091 644206 679022 688251 667925 625043 579486 559088
1321.000  581994 631332 681889 710090 701718 661972 608077 560488
1329.000  537616 545711 576476 617208 655877 682680 698026 700479
1337.000  682943 647401 597800 546728 500588 475532 473700 492712
1345.000  526035 566908 610114 656082 699654 741415 772869 793672
1353.000  802343 801298 789251 772843 752073 724260 691435 649850
1361.000  602488 552824 506602 462562 420224 379118 339399 301470
1369.000  265637 235836 211276 189440 169659 148718 129463 113911
1377.000  101584 91850 83825 75437 67517 59999 53843 48781
1385.000  44982 41165 37628 34180 32033 30487 29300 26960
1393.000  24726 23653 23221 23498 23500 23769 24008 24122
1401.000  24238 24279 23305 22387 21249 20224 19605 18488
1409.000  17169 16038 15142 14717 14223 14080 14837 16208
1417.000  16730 16648 16492 16090 15687 14801 13209 12647
1425.000  11791 11779 12305 13304 14818 15573 15366 14682
1433.000  13631 12602 10840 10618 10647 11547 12395 13089
1441.000  12899 12030 10915 9624 9421 9232 9786 10622
1449.000  10886 10637 9883 9173 8645 8670 8999 9270
1457.000  9325 9504 9139 8759 8255 8357 8334 8326
1465.000  8501 8725 8670 8231 8157 8078 8152 8181
1473.000  8176 8150 8135 7973 7846 7858 7898 7983
1481.000  7941 7807 7920 7606 7396 7414 7496 7834
1489.000  7565 7792 7547 7451 7497 7598 7468 7743
1497.000  7552 7699 7613 7533 7298 7201 7364 7427
1505.000  7359 7465 7677 7324 7344 7242 7155 6968
1513.000  7120 6866 7057 6940 6887 6963 6956 6887
1521.000  7122 6959 6739 6994 6999 7014 6886 7003
1529.000  6984 6916 6652 6847 6814 6647 6798 6828
1537.000  6752 6842 6849 6834 7000 6666 7016 6881
1545.000  6941 6569 6909 6765 6573 6454 6664 6526
1553.000  6391 6230 6205 6124 6093 6288 6131 6104
1561.000  6174 6086 5757 6098 6028 6133 5697 5870
1569.000  6143 5930 6010 5690 5566 5833 5568 5745
1577.000  5957 5721 5528 5616 5938 5633 5543 5463
1585.000  5523 5440 5356 5451 5609 5573 5519 5516
1593.000  5433 5584 5399 5426 5387 5506 5495 5573
1601.000  5611 5600 5351 5453 5727 5441 5408 5630
1609.000  5568 5378 5479 5445 5336 5154 5331 5344
1617.000  5167 5154 5225 4975 5102 4971 4803 4750
1625.000  4799 4774 4696 4747 4704 4757 4646 4687
1633.000  4653 4605 4595 4778 4615 4705 4734 4497
1641.000  4682 4519 4495 4328 4598 4578 4823 4538
1649.000  4320 4500 4333 4493 4553 4461 4357 4489
1657.000  4620 4485 4595 4310 4393 4395 4381 4361
1665.000  4203 4279 4193 4347 4511 4318 4450 4412
1673.000  4434 4395 4385 4329 4533 4409 4499 4544
1681.000  4388 4293 4361 3977 4282 4287 4203 4254
1689.000  4170 4369 4218 4082 4137 4307 4157 4117
1697.000  4119 4364 4328 4018 3888 3957 3886 4023
1705.000  4078 4026 3992 4096 3971 3997 3883 4009
1713.000  4062 3928 3745 3793 3992 3940 3998 3832
1721.000  3800 3830 4008 3750 3948 3834 3969 3929
1729.000  3886 3970 4006 3934 4024 3733 3884 3848
1737.000  3949 3888 3783 3946 3791 3921 3768 3700
1745.000  3777 3917 3719 3773 3755 3848 3685 3770
1753.000  3816 3883 3656 3767 3911 3693 3794 3800
1761.000  3680 3803 3655 3677 3666 3764 3715 3646
1769.000  3625 3671 3759 3572 3790 3712 3495 3712
1777.000  3788 3725 3655 3641 3457 3501 3478 3595
1785.000  3680 3480 3368 3384 3645 3283 3427 3627
1793.000  3557 3308 3609 3526 3589 3671 3829 3833
1801.000  3806 3484 3403 3609 3459 3567 3413 3438
1809.000  3443 3413 3370 3287 3359 3532 3352 3460
1817.000  3167 3327 3230 3445 3263 3378 3455 3487
1825.000  3337 3369 3265 3267 3146 3425 3265 3199
1833.000  3149 3205 3158 3093 3050 3103 3430 2996
1841.000  3154 3023 3141 3028 3198 2965 2904 3217
1849.000  3306 3055 3131 2933 3019 3007 3038 3198
1857.000  3045 3274 2824 3123 2947 2839 2969 3033
1865.000  3003 2991 2858 2928 3126 2826 2922 2776
1873.000  2797 2837 2954 2991 2905 2871 2946 2958
1881.000  2815 2767 2711 2839 2809 2754 2744 2871
1889.000  2790 2913 2763 2615 2600 2926 2886 2633
1897.000  2740 2665 2844 2964 2590 2617 2597 2743
1905.000  2481 2591 2678 2611 2665 2586 2461 2640
1913.000  2480 2459 2408 2477 2594 2508 2670 2493
1921.000  2437 2513 2403 2362 2145 2182 2232 2113
1929.000  2075 2231 2094 2172 2111 2209 2128 2017
1937.000  2140 1991 2078 2011 2001 2106 2090 1987
1945.000  2192 2304 2078 1996 1966 1921 1910 2102
1953.000  1949 2172 1976 1881 1998 1994 1974 1893
1961.000  1903 1874 2028 1882 1927 1803 1885 1812
1969.000  1844 1732 1842 1700 1881 1747 1708 1834
1977.000  1836 1644 1864 1598 1718 1673 1601 1632
1985.000  1637 1727 1718 1688 1569 1744 1624 1734
1993.000  1562 1576 1659 1836 1543 1559 1603 1554
2001.000  1355 1557 1511 1764 1495 1532 1612 1455
2009.000  1533 1633 1402 1473 1402 1351 1318 1531
2017.000  1542 1638 1523 1480 1580 1426 1306 1515
2025.000  1588 1422 1427 1440 1669 1565 1480 1515
2033.000  1759 1743 1579 1792 1716 1784 1766 1673
2041.000  1598 1835 1837 1670 1610 1721 1946 1718
##END=
