##TITLE= SPLICCO spectrum (File: d:\3n2.jdx)
##JCAMP-DX= 4.24
##DATE= 1.3.2022
##TIME= 12:10:53
##DATA TYPE= INFRARED SPECTRUM
##OWNER= Public Domain
##RESOLUTION= 2.0
##DELTAX= 1.00000000
##XUNITS= ARBITRARY UNITS
##YUNITS= ARBITRARY UNITS
##APPLICATION= SPLICCO
$$SHOW_VERTICAL_FLIPPED= 0
$$SHOW_HORIZONTAL_FLIPPED= 0
##XFACTOR= 1.0
##YFACTOR= 0.000001
##FIRSTX= 1.000
##LASTX= 2048.000
##NPOINTS= 2048
##FIRSTY= 0.001485
##XYDATA= (X++(Y..Y))
1.000  1485 1331 1544 1353 1795 1546 1787 1607
9.000  1818 1713 1858 1823 2030 1708 1721 1919
17.000  1926 2118 1901 1848 1920 1907 2021 1907
25.000  1851 1803 2001 1879 2122 1971 2062 1964
33.000  1811 1957 2066 1946 1868 2124 1904 1964
41.000  1925 1927 1794 1969 1814 1781 1884 1968
49.000  1922 2091 2217 2278 2107 2139 2072 1961
57.000  2209 2109 2277 2209 2031 2248 2368 2222
65.000  2229 2214 2769 2315 2388 2532 2555 2537
73.000  2293 2272 2422 2279 2532 2640 2595 2484
81.000  2564 2670 2446 2373 2723 2585 2636 2576
89.000  2618 2634 2788 2557 2665 2502 2606 2666
97.000  2808 2680 2734 2615 2743 2756 2935 2503
105.000  2600 2719 2765 2682 2823 2688 2663 2852
113.000  2789 2804 2867 2811 3038 2764 2865 2930
121.000  2862 3064 2925 3060 2936 2954 3084 2877
129.000  3089 2918 2971 3112 3126 3088 3233 3052
137.000  3105 3050 3038 3111 2978 3232 2790 2910
145.000  3038 3051 2894 2947 3019 2842 3018 2902
153.000  2929 3090 3048 3067 2996 2964 2881 2920
161.000  3036 3021 3133 3012 3080 3040 3218 3077
169.000  3020 3066 3242 3006 3087 3158 3071 3119
177.000  3031 3112 3064 3315 3240 3146 3144 3039
185.000  3057 3126 3310 3134 3332 3010 3158 3167
193.000  3178 3202 3085 3097 3182 3208 3128 3111
201.000  3205 3244 3182 3349 3331 3256 3271 3304
209.000  3228 3254 3112 3193 3366 3269 3221 3124
217.000  3342 3350 3335 3289 3186 3403 3046 3391
225.000  3315 3386 3415 3463 3280 3393 3294 3331
233.000  3143 3395 3272 3291 3285 3219 3454 3362
241.000  3239 3266 3467 3302 3329 3174 3255 3501
249.000  3171 3311 3286 3285 3265 3476 3424 3394
257.000  3420 3595 3631 3567 3439 3479 3388 3437
265.000  3542 3496 3392 3526 3361 3557 3451 3534
273.000  3604 3726 3628 3594 3614 3411 3682 3675
281.000  3535 3561 3303 3307 3376 3558 3451 3370
289.000  3514 3434 3349 3455 3356 3539 3371 3363
297.000  3275 3324 3403 3374 3492 3280 3416 3416
305.000  3430 3577 3496 3540 3785 3692 3678 3459
313.000  3446 3549 3643 3693 3536 3623 3534 3846
321.000  3731 3742 3516 4136 3748 3714 3757 3829
329.000  3681 3908 3677 3612 3965 3728 3957 3832
337.000  3732 3939 3733 3758 3753 3907 3694 3832
345.000  3877 3770 3927 3619 3722 3814 3964 3743
353.000  3869 3793 3742 3900 3628 3749 3973 3841
361.000  3802 4004 3822 3746 3984 4076 3818 3910
369.000  3823 3818 3703 3910 3955 3816 3885 3875
377.000  3835 3831 4056 3864 3989 3811 3876 3644
385.000  4024 3921 3921 3945 4157 3759 3802 3978
393.000  4126 3697 4078 4023 3987 4022 3939 4004
401.000  4128 3840 3748 4066 3948 3969 4104 3981
409.000  3947 4109 3955 4119 4157 4121 3830 3987
417.000  3898 3948 4004 4095 4025 4049 4146 4117
425.000  4287 4031 3864 4140 4215 4141 4092 4166
433.000  4040 4065 3968 3956 4086 3982 4177 4045
441.000  3917 4129 3896 3834 4084 4101 4010 3967
449.000  3971 4046 4119 3984 4009 4026 4071 4062
457.000  4065 3951 3978 4043 3993 3943 4021 4061
465.000  4110 3846 3979 4086 3968 3940 4073 4069
473.000  4070 4117 4147 4018 4061 4137 4039 3942
481.000  3977 4169 3954 3954 3871 4061 4024 3969
489.000  4201 4004 4182 4229 4066 4015 4094 4018
497.000  3859 4026 4153 4112 4180 4012 3985 3898
505.000  4307 3998 3937 3988 4185 4041 4165 4053
513.000  3984 4049 4050 3855 4107 3979 4029 3945
521.000  3909 3981 4122 4019 4056 4085 3994 3976
529.000  4092 3975 4014 4045 3857 3996 4024 3876
537.000  3835 3860 4174 3952 4147 3929 4090 4094
545.000  4004 4243 4184 4045 3975 4161 4055 4100
553.000  4054 4012 4098 3966 4044 3893 4085 4012
561.000  3887 3871 3977 4007 4046 3876 4073 4199
569.000  3937 4257 4020 3983 4180 4066 4059 4189
577.000  4033 4141 4132 3913 3992 4034 4161 4295
585.000  4103 4199 4042 3969 3974 4138 4183 4217
593.000  4028 4208 4058 4136 4123 4049 3988 4074
601.000  4100 4051 4123 4041 4237 4149 4211 4037
609.000  4314 4088 4110 4089 4236 4040 4057 4020
617.000  4054 4158 3959 4051 4070 4357 4103 4379
625.000  4242 4167 4185 4278 4079 4346 4126 4166
633.000  4255 4246 4098 4146 4303 4416 4092 3998
641.000  4276 3951 4311 4109 4356 4209 4148 4082
649.000  4275 3973 4251 4207 4172 4372 4003 4120
657.000  4205 4134 4237 4360 4204 4196 4139 4248
665.000  4315 4355 4229 4452 4404 4331 4246 4312
673.000  4161 4369 4395 4446 4211 4394 4310 4214
681.000  4304 4360 4397 4255 4313 4339 4261 4382
689.000  4108 4251 4132 4404 4416 4279 4384 4225
697.000  4310 4323 4340 4246 4187 4255 4286 4118
705.000  4459 4398 4286 4254 4381 4306 4501 4267
713.000  4568 4501 4501 4598 4580 4689 4315 4505
721.000  4467 4388 4446 4449 4540 4433 4416 4529
729.000  4157 4508 4378 4281 4395 4477 4352 4207
737.000  4355 4381 4452 4689 4429 4583 4467 4443
745.000  4578 4613 4529 4678 4650 4439 4772 4598
753.000  4456 4481 4532 4782 4698 4410 4503 4678
761.000  4544 4509 4319 4546 4455 4394 4455 4574
769.000  4620 4536 4845 4587 4457 4516 4454 4665
777.000  4508 4720 4982 4651 4738 4543 4666 4601
785.000  4732 4671 4808 4646 4488 4749 4602 4509
793.000  4703 4688 4607 4506 4758 4596 4557 4673
801.000  4970 4934 4853 4803 4679 4976 4805 4851
809.000  4820 4815 4850 4899 4985 4669 4831 4966
817.000  4880 4921 4664 4762 4972 4791 4752 4911
825.000  4941 4904 4774 4787 4828 4812 4853 4876
833.000  5085 4935 4845 5082 5161 5083 5038 4981
841.000  5316 5311 5065 5349 5381 5150 5282 5309
849.000  5148 5280 5139 5300 5475 5325 5179 5291
857.000  5180 5054 5006 5011 5301 5255 5295 5183
865.000  5290 5265 5149 5348 5276 5462 5368 5338
873.000  5451 5351 5825 5538 5574 5723 5518 5489
881.000  5706 5594 5653 5656 5489 5532 5763 5566
889.000  5556 5852 5861 5602 5808 5551 5562 5737
897.000  5582 5764 5999 6023 5997 5810 5977 6061
905.000  5978 5867 6138 6167 6059 6093 5830 5938
913.000  6108 6079 6154 5753 5765 5951 5934 5865
921.000  5856 5758 5889 5870 5950 5984 5649 5840
929.000  5738 5823 6103 6223 6183 6250 6164 6274
937.000  6411 6408 6511 6333 6568 6652 6596 6511
945.000  6619 6711 6779 6645 6703 6851 6777 6743
953.000  6973 7051 7037 7016 7105 7151 7010 7104
961.000  6975 6791 7121 7132 7105 7341 7197 6915
969.000  7094 7289 7155 7288 7190 7169 7483 7613
977.000  7415 7622 7810 7690 7582 7845 7752 7736
985.000  8045 8106 7955 8126 7959 8096 8057 8378
993.000  8268 8155 8312 8273 8220 7960 8178 8129
1001.000  7905 8006 8216 8219 8175 8127 8205 8242
1009.000  8342 8186 8315 8685 8696 8891 8770 8639
1017.000  8493 8804 8659 8820 8820 8856 8641 8605
1025.000  8926 8801 8631 8868 9068 9018 8908 8938
1033.000  9035 8854 9387 9045 8936 8734 8891 9482
1041.000  9129 8785 9048 9102 8762 8929 9146 9067
1049.000  8666 9584 9331 9518 9306 9252 8933 9160
1057.000  9178 9232 9299 9727 10665 10241 10336 10520
1065.000  10671 12022 11061 17134 14237 12593 12550 10275
1073.000  10508 10428 10210 9804 9916 9916 9855 9627
1081.000  9894 10063 10207 10071 10087 9790 9687 10015
1089.000  10358 11763 12774 12119 10963 10599 11083 11345
1097.000  11965 11235 11396 11240 11393 11736 11375 11450
1105.000  11434 11468 11436 11711 11905 11139 10901 10524
1113.000  10147 10314 10203 10280 10548 10630 10911 11400
1121.000  11650 12381 12518 12606 13447 13604 13849 14476
1129.000  14712 15292 15106 15521 15754 15490 15050 15283
1137.000  14754 14183 13287 12681 12033 11913 11652 11915
1145.000  12503 14160 16560 19224 21996 26864 31888 38185
1153.000  46224 55289 65991 79181 92067 108945 126333 147326
1161.000  168293 191407 215536 241568 264269 291769 315740 343396
1169.000  370057 393753 418288 443445 467215 488310 511260 531163
1177.000  552082 569093 582685 597514 609604 621015 628869 637114
1185.000  644104 648503 653317 657403 658840 660479 661903 662380
1193.000  662287 663389 663374 662445 662050 661030 664219 662516
1201.000  664077 665052 668414 670261 674382 675464 680685 682379
1209.000  686953 690117 692211 695644 700262 700583 703207 704649
1217.000  707394 708418 710556 710310 708670 708930 708245 705296
1225.000  700670 698042 694051 690585 684466 682547 677124 668742
1233.000  663488 658191 650811 645414 640290 635075 631044 624555
1241.000  619764 617071 613083 611263 609347 608691 606976 606495
1249.000  607602 608565 611721 611288 614244 616613 619871 622799
1257.000  627405 630207 633262 636084 638810 643073 644743 648695
1265.000  652643 652901 652556 655790 660849 657340 651131 649988
1273.000  648287 645891 644993 643335 638929 635849 633357 630279
1281.000  627114 623060 619541 616004 614932 612273 611490 610672
1289.000  608889 610208 612045 614387 617124 620167 626180 631737
1297.000  637495 644200 651178 655520 665379 672628 679137 686188
1305.000  693714 698944 704548 710781 714789 714305 717346 717345
1313.000  716957 713049 706608 700875 692541 683104 671077 657920
1321.000  641645 623294 602644 583720 560054 536234 509076 483241
1329.000  452815 423373 394754 365959 337810 307786 278547 251590
1337.000  225053 199599 175927 153485 132797 113061 96574 82891
1345.000  70125 60530 50827 43087 37041 32016 27812 24547
1353.000  22334 20158 18961 18378 17675 17672 17569 17499
1361.000  17691 17658 17586 17441 17731 17537 17018 16769
1369.000  16167 15745 15229 14704 13954 13341 13169 12397
1377.000  12313 11448 11640 11072 11231 10890 11168 10962
1385.000  11112 11055 11127 11205 11022 11446 11355 11511
1393.000  11573 11794 11684 11405 11231 11054 11152 11123
1401.000  10949 10583 10450 10243 10500 9991 10226 10082
1409.000  10034 10165 9870 9929 10084 10156 10188 10514
1417.000  10469 10487 10306 10437 10549 10526 10420 10512
1425.000  10182 10027 10029 9879 9681 9810 9754 9679
1433.000  9376 9328 9273 9229 9089 9314 8863 8981
1441.000  8861 9085 8917 8903 8877 9071 8960 8865
1449.000  9025 8921 8920 8826 8881 8733 8782 8545
1457.000  8625 8834 8453 8362 8370 8253 8205 8331
1465.000  8228 8361 8221 8187 8091 8314 8228 7847
1473.000  8211 8225 8150 8201 8105 7954 7810 7937
1481.000  7873 8006 7874 7753 7764 7633 7601 7774
1489.000  7766 7720 7923 7728 7714 7712 7657 7788
1497.000  7890 7757 7959 7994 8010 7775 8029 7822
1505.000  7748 7740 8155 7765 7845 7910 7655 7546
1513.000  7423 7456 7487 7366 7292 7373 7204 7098
1521.000  7195 7105 7144 7334 7097 7229 7123 7125
1529.000  6982 6973 7135 7035 7240 6883 6903 7059
1537.000  6900 7068 6801 6895 6794 6721 6948 7002
1545.000  6753 6938 6745 6799 6764 6730 7057 6808
1553.000  6624 6654 6725 6769 6687 6951 6846 6823
1561.000  6999 7033 6634 6932 6831 6859 6824 6804
1569.000  6807 6657 6777 6494 6679 6379 6470 6478
1577.000  6385 6390 6193 6221 6444 6233 6101 5976
1585.000  5998 6120 6161 5880 5946 5995 6100 5969
1593.000  6075 5751 5767 5775 5686 5765 5559 5771
1601.000  5535 5597 5525 5648 5592 5704 5561 5673
1609.000  5684 5622 5674 5774 5535 5514 5630 5737
1617.000  5639 5669 5664 5519 5602 5404 5562 5336
1625.000  5567 5449 5676 5468 5431 5660 5550 5508
1633.000  5462 5450 5584 5390 5378 5483 5531 5441
1641.000  5392 5598 5359 5360 5404 5377 5581 5175
1649.000  5227 5316 5340 5267 5290 5195 5071 5100
1657.000  5270 5502 5154 5297 5059 5058 5053 5127
1665.000  4937 5031 5019 4860 5130 5009 4921 4928
1673.000  4974 4929 5175 4896 5131 4965 4965 5164
1681.000  5046 5018 5027 4927 4864 4902 4782 4896
1689.000  5046 5083 4953 4842 4915 4994 4886 4882
1697.000  4929 4985 4982 4941 4800 4739 4998 4750
1705.000  4956 4840 4766 4893 4863 4835 4803 4894
1713.000  4761 4636 4742 4836 4883 4786 4558 4808
1721.000  4824 4759 4697 4773 4864 4807 4925 4723
1729.000  4815 4719 4690 4651 4897 4621 4743 4567
1737.000  4572 4658 4674 4884 4738 4613 4749 4624
1745.000  4796 4701 4565 4793 4745 4700 4524 4475
1753.000  4526 4661 4584 4656 4739 4427 4489 4498
1761.000  4465 4535 4500 4378 4551 4715 4410 4480
1769.000  4612 4547 4290 4445 4377 4566 4409 4423
1777.000  4443 4571 4583 4315 4444 4203 4230 4416
1785.000  4390 4242 4297 4361 4540 4197 4474 4449
1793.000  4470 4170 4401 4535 4467 4588 4612 4471
1801.000  4532 4499 4430 4362 4282 4388 4287 4370
1809.000  4459 4240 4339 4337 4237 4183 4206 4157
1817.000  4148 4131 4244 4096 4207 4201 4223 4244
1825.000  4277 4032 3982 4104 4043 4060 4048 4080
1833.000  4036 3940 3769 3945 3880 4000 3943 3783
1841.000  4222 3903 3869 3927 3897 3875 3866 3898
1849.000  3815 3812 3867 3773 3886 3865 3691 3977
1857.000  3745 3936 3839 3877 3741 3742 3892 3873
1865.000  3899 3774 3638 3732 4003 3773 3723 3636
1873.000  3705 3644 3650 3888 3918 3798 3801 3839
1881.000  3735 3726 3586 3574 3621 3767 3717 3656
1889.000  3681 3691 3723 3587 3414 3669 3576 3663
1897.000  3575 3530 3775 3613 3502 3622 3473 3624
1905.000  3525 3517 3256 3743 3570 3433 3383 3410
1913.000  3230 3273 3396 3420 3537 3453 3341 3381
1921.000  3170 3301 3306 3304 3216 3050 3107 3016
1929.000  2899 3064 2923 3094 3030 3022 3054 2760
1937.000  3124 2805 2955 2909 2970 2924 2812 2873
1945.000  2837 3082 2996 2773 2759 2712 2830 2846
1953.000  2846 2917 2861 2713 2885 2665 2829 2920
1961.000  2494 2485 2652 2659 2665 2548 2616 2307
1969.000  2420 2443 2414 2268 2566 2455 2453 2415
1977.000  2390 2364 2552 2385 2432 2407 2352 2334
1985.000  2367 2459 2249 2271 2400 2205 2146 2388
1993.000  2221 2188 2214 2099 2236 2184 2221 2175
2001.000  2021 2219 2162 2190 2052 2101 2155 2084
2009.000  2164 2178 1971 1954 1963 1981 1926 1939
2017.000  2022 2139 2106 2052 2161 1854 1847 1988
2025.000  2063 1983 1814 1846 2011 1925 1939 2013
2033.000  1366 1378 1433 1571 1354 1241 1486 1323
2041.000  1378 1527 1573 1377 1373 1269 1571 1432
##END=
