##TITLE= SPLICCO spectrum (File: d:\Messung1Doppelspalte.jdx)
##JCAMP-DX= 4.24
##DATE= 1.3.2022
##TIME= 11:10:52
##DATA TYPE= INFRARED SPECTRUM
##OWNER= Public Domain
##RESOLUTION= 2.0
##DELTAX= 1.00000000
##XUNITS= ARBITRARY UNITS
##YUNITS= ARBITRARY UNITS
##APPLICATION= SPLICCO
$$SHOW_VERTICAL_FLIPPED= 0
$$SHOW_HORIZONTAL_FLIPPED= 0
##XFACTOR= 1.0
##YFACTOR= 0.000001
##FIRSTX= 1.000
##LASTX= 2048.000
##NPOINTS= 2048
##FIRSTY= 0.001892
##XYDATA= (X++(Y..Y))
1.000  1891 1693 1613 1758 1758 1684 1853 1609
9.000  1736 1986 1851 1716 1917 1958 1890 1965
17.000  1907 1881 2068 1972 2091 2184 2323 2255
25.000  2185 2264 2258 2164 2273 2215 2263 2336
33.000  2570 2373 2375 2207 2425 2263 2398 2494
41.000  2376 2375 2374 2471 2507 2401 2525 2375
49.000  2379 2340 2385 2290 2351 2534 2319 2342
57.000  2469 2354 2649 2635 2428 2399 2483 2549
65.000  2559 2500 2644 2619 2680 2428 2395 2383
73.000  2532 2469 2556 2567 2387 2835 2558 2570
81.000  2689 2776 3035 2803 2812 2915 2774 3095
89.000  2855 2698 2927 2957 2956 3216 3270 3297
97.000  3198 3153 3018 2867 3035 3163 3387 3251
105.000  3302 3054 3337 3201 3534 3471 3406 3725
113.000  3400 3437 3483 3377 3513 3321 3512 3213
121.000  3492 3420 3479 3675 3856 4137 4168 4384
129.000  4246 4407 4464 4435 4479 4249 4203 4335
137.000  4252 4211 4055 4030 3889 3979 4048 3826
145.000  3901 3793 3744 3747 3570 3730 3754 3838
153.000  3665 3577 3871 3797 3730 4008 3639 3621
161.000  3896 3720 3628 3884 4017 4116 3893 3979
169.000  3984 4018 4048 4285 4128 4077 3935 3966
177.000  4014 4042 3964 4108 4007 3696 3860 3913
185.000  3825 3958 4065 3823 3789 3929 3781 3873
193.000  3834 4104 4152 4361 4332 4061 4117 3999
201.000  4064 3985 4111 3940 4084 3972 3988 4191
209.000  4121 4045 3876 3976 3967 4200 4063 4088
217.000  4032 4107 4100 4308 4041 4192 4046 4166
225.000  4017 4314 4020 4141 4229 4126 4001 4027
233.000  4022 3976 4036 3893 3999 3980 3887 4227
241.000  4126 4384 4157 4296 4363 4405 4575 4584
249.000  4650 4728 4973 4980 4864 4788 5010 5192
257.000  5103 5024 5395 5328 5559 5507 5314 5333
265.000  5170 5150 4895 4765 4808 4867 4888 4848
273.000  4727 4750 4993 4820 4894 4873 4618 4532
281.000  4609 4435 4427 4512 4457 4753 4649 4764
289.000  4924 5172 5128 4960 4952 5126 4892 4932
297.000  4918 4843 4603 4607 4889 4835 4495 4570
305.000  4413 4250 4022 4114 4007 4089 4048 4099
313.000  4157 4244 4443 4015 4142 4169 4067 4286
321.000  4097 4404 4428 4449 4528 4518 4694 4716
329.000  4748 4760 4753 4815 4585 4572 4838 5059
337.000  5100 5101 5048 5502 5247 5346 5456 5651
345.000  5502 5901 5617 5872 6122 5985 5950 5827
353.000  5718 5784 5797 5814 5771 5374 5576 5178
361.000  5540 5664 5522 5566 5247 5028 5051 4869
369.000  4827 4969 4805 5053 5047 5499 5506 5811
377.000  5805 5853 5800 5910 6038 5980 5929 5893
385.000  5724 5892 5705 5963 5816 5666 5386 5367
393.000  5045 4921 4936 4877 4968 5009 4969 5090
401.000  5235 5344 5431 5612 5672 5761 5953 5568
409.000  5957 5924 6047 6282 6400 6600 6454 6473
417.000  6687 6425 6453 6368 6407 6399 6312 6364
425.000  6262 6331 6033 5998 5762 6007 5856 5584
433.000  5353 5401 5354 5361 5219 5301 5371 5298
441.000  5476 5302 5396 5410 5746 5863 6047 6056
449.000  6112 6386 6277 6313 6157 5834 5614 5376
457.000  5007 4887 4843 4670 4796 4815 4931 5001
465.000  4910 5194 5427 5252 5575 5676 6127 6371
473.000  6766 6957 7385 7606 7939 8076 8184 8439
481.000  8404 8366 8271 8354 7822 7496 7509 7200
489.000  7128 7199 6846 6821 7160 7493 7206 7506
497.000  7600 7761 7846 8172 8224 8335 8498 8496
505.000  8614 8666 8959 9121 8694 8685 8286 8693
513.000  8526 8151 7785 7235 7049 6516 6184 5912
521.000  5636 5173 4917 5032 5078 5051 5134 5382
529.000  5460 5712 6194 6218 6640 6899 7114 6996
537.000  7241 7682 8041 8388 8194 8371 8334 8483
545.000  8294 8406 8136 8493 7891 7755 7758 7509
553.000  7627 7624 7676 7440 7489 7644 7996 8408
561.000  8374 8628 8537 8606 9428 9567 9337 9457
569.000  9161 8927 8463 8317 8430 8434 8289 8138
577.000  7613 7513 7256 7261 7488 7539 7433 7934
585.000  7623 7517 7436 7104 7280 7020 7261 7629
593.000  8060 8357 8697 8900 8981 9051 9498 9903
601.000  10100 9905 10028 10242 10282 9683 9018 8087
609.000  7592 7620 6934 6760 6262 6149 5950 6192
617.000  6276 6685 6786 7345 7703 8113 8763 9400
625.000  10654 11586 12643 13785 14952 16314 17121 17652
633.000  17558 17080 17425 17792 18157 18302 18056 17863
641.000  17570 17442 17336 15992 14281 12727 11331 10749
649.000  9789 8921 8437 7616 7343 7083 6823 6497
657.000  6541 6126 6299 6596 6852 7187 6960 6836
665.000  7272 7725 8266 8216 7707 7228 6805 6570
673.000  6557 6598 6373 6401 6387 6499 6542 6921
681.000  7496 7625 7362 7749 7939 8130 8706 9045
689.000  9252 9424 9326 9050 8932 9469 10217 10603
697.000  10585 10267 9891 9973 10137 10464 10648 10664
705.000  10820 11491 12190 13195 13882 15145 16416 17724
713.000  19119 21153 23193 25483 28535 31217 33762 35778
721.000  37242 37818 38586 39930 41274 42526 42231 41205
729.000  39643 37425 34806 32584 30156 27677 24145 21070
737.000  17755 14774 12116 10232 8974 7655 7495 7317
745.000  7785 8665 10034 11252 12922 15199 17686 20869
753.000  24282 27066 29122 31168 32339 33799 34815 35971
761.000  36136 36889 36673 35695 35525 34139 32789 30126
769.000  27416 24371 22112 20202 18566 16639 14890 13818
777.000  12644 12300 11544 11823 11556 11732 11682 11893
785.000  12079 12343 12865 12460 12751 12146 11984 11825
793.000  12024 12140 12401 12857 13743 14599 16350 18278
801.000  20758 23986 27676 31408 35684 40769 46360 51891
809.000  57338 61934 67028 71673 75898 79102 81434 81413
817.000  80280 78004 74259 69076 63621 56681 48541 40782
825.000  33305 26470 20802 16096 13442 12421 14313 19351
833.000  26680 37569 51005 70028 92984 122975 158821 197661
841.000  239649 287100 333582 379242 424878 466761 509354 545714
849.000  575720 603584 625486 642170 656643 664122 666858 661431
857.000  647595 628646 602289 569789 529622 483120 433140 383353
865.000  329932 275140 219687 168878 121849 83138 52710 31305
873.000  18362 15330 22135 39798 68000 108719 162769 226325
881.000  296512 371538 449291 527696 602611 671394 734704 788483
889.000  836429 873721 901062 920236 934118 940050 943886 942638
897.000  935846 920632 901489 874680 839047 798983 747434 691803
905.000  630632 564056 495137 419172 349356 280171 218995 158347
913.000  108826 69830 42528 25844 19214 22741 36261 58850
921.000  87798 127973 175131 225380 274816 325321 372408 416737
929.000  458483 503037 540441 576257 593675 614911 630862 643999
937.000  645667 640399 630726 615197 587271 553961 519467 475374
945.000  432871 391948 348683 303430 264572 227828 193943 158086
953.000  125105 95878 72331 53404 37547 25933 17576 13259
961.000  11796 12017 13727 16590 22024 28542 36819 44547
969.000  52151 58291 66246 67244 68985 70244 69832 67608
977.000  66211 68756 67278 64793 60938 54041 47160 48207
985.000  40984 32078 30816 27933 25460 21244 20231 16574
993.000  14836 15341 12836 14307 14262 14368 14486 11241
1001.000  10946 10709 10643 11390 11761 11037 11520 11361
1009.000  11608 11818 12370 13215 15023 17343 19691 21011
1017.000  23223 24589 25999 28363 31382 34771 37589 39415
1025.000  39275 38188 36341 36115 36230 37015 37430 36267
1033.000  33486 30189 26627 24525 22813 21330 18941 16380
1041.000  13710 11772 10474 9461 9094 9077 9970 10908
1049.000  11791 12889 13920 15904 18547 22328 25604 27756
1057.000  29101 29857 31735 34627 37641 40113 40331 38848
1065.000  37901 37896 39535 39253 37779 35159 32413 30504
1073.000  29657 27932 25102 22479 19766 18558 17399 15830
1081.000  13912 12149 10822 10484 9994 9249 8386 7330
1089.000  7336 7052 7190 7111 7009 6761 6535 6333
1097.000  6517 6748 6621 6781 6266 6194 5969 6066
1105.000  5853 5755 5901 5690 5973 6038 6262 6512
1113.000  6735 6824 6978 7249 7683 8519 8269 8055
1121.000  7942 8153 8145 8171 7760 7402 7393 6943
1129.000  7341 7333 7298 7289 7536 7588 8503 9124
1137.000  9457 9925 10713 11212 12365 13266 14081 15136
1145.000  16334 17394 18157 19637 20150 20681 21231 21863
1153.000  22510 22364 21573 20851 20672 20153 18919 16986
1161.000  15715 14709 13608 11954 10275 9231 8773 7491
1169.000  6867 6192 5642 5602 5574 5403 5266 5670
1177.000  5187 5504 5372 5815 6099 6324 6098 6142
1185.000  6495 6621 6614 6827 6915 7099 7031 6883
1193.000  7249 7390 6819 7156 7206 7079 6976 6770
1201.000  6774 6721 6470 6443 6275 6148 6063 6196
1209.000  6129 6233 5987 5941 5816 6056 5784 5936
1217.000  5793 5743 5671 5671 5744 5784 5715 5518
1225.000  5937 5884 6075 6213 6424 6706 7149 7663
1233.000  8164 8845 9220 9734 10327 10656 10744 10746
1241.000  10870 11020 10633 10415 9786 9238 8941 8221
1249.000  7606 7068 6491 6021 5888 5679 5294 5104
1257.000  4909 4588 4661 4472 4519 4609 4874 4845
1265.000  5230 5765 6249 6611 7253 7798 8118 8717
1273.000  8974 9465 9782 10034 9989 9952 9706 9475
1281.000  9009 8949 8647 8515 7871 7633 7068 6783
1289.000  6363 6098 5761 5641 5366 5313 5188 5234
1297.000  5002 5432 5106 5304 5122 5569 5192 5068
1305.000  5151 5029 4946 4958 4842 4857 4782 4809
1313.000  4827 4713 4645 4700 4755 4769 4589 4685
1321.000  4694 4651 4498 4723 4676 4994 4881 5105
1329.000  5397 5850 5882 6082 6265 6529 6453 6214
1337.000  6079 6365 6017 5672 5357 5007 4795 4742
1345.000  4689 4440 4491 4651 4663 4940 4949 5117
1353.000  5263 5389 5243 5593 6016 5992 5956 6241
1361.000  6355 6723 7209 7392 7503 7777 7830 8314
1369.000  8333 8187 8027 8072 7858 7835 7213 7089
1377.000  6866 6132 5897 5668 5566 5164 5080 5012
1385.000  4814 4791 4806 4586 4478 4492 4674 4817
1393.000  4777 4717 4631 4816 4836 4674 4983 4904
1401.000  4893 4535 4747 4561 4522 4540 4680 4310
1409.000  4308 4385 4121 4102 4177 3920 4221 4158
1417.000  4218 4286 4348 4517 4554 4708 5085 5154
1425.000  5161 5184 5068 5020 5015 4965 4699 4785
1433.000  4534 4394 4453 4422 4500 4435 4402 4450
1441.000  4603 4464 4528 4506 4624 4545 4819 4862
1449.000  5154 5211 5148 5143 5048 5158 5095 5432
1457.000  5155 5293 5247 5137 5110 5323 5219 5282
1465.000  5232 5168 5108 5002 5090 4785 4789 4573
1473.000  4366 4425 4118 4014 3888 4149 4023 4316
1481.000  4425 4533 4606 4463 4653 4533 4737 4623
1489.000  4631 4612 4665 4673 4594 4615 4540 4661
1497.000  4497 4606 4635 4641 4632 4404 4337 4631
1505.000  4538 4421 4231 4580 4493 4610 4497 4521
1513.000  4470 5012 4897 4979 4793 4818 5136 5174
1521.000  5047 4900 5018 5037 4983 5014 4612 4397
1529.000  4489 4489 4328 4247 4182 4062 4046 3964
1537.000  4067 4079 3884 4160 4162 4155 4156 4097
1545.000  4220 4021 4106 4148 4503 4134 4270 4237
1553.000  4178 4455 4465 4598 4595 4414 4520 4419
1561.000  4220 3992 4273 3958 4186 3947 4224 4190
1569.000  4063 4074 4116 4147 4535 4595 4607 4718
1577.000  4759 4972 4602 4857 4718 4941 4739 4638
1585.000  4800 4436 4546 4425 4140 4267 4181 4287
1593.000  4266 4130 4001 4003 4290 3961 3908 3708
1601.000  3793 3904 3631 3586 3661 3516 3581 3714
1609.000  3663 3702 3595 3592 3500 3694 3817 3542
1617.000  3591 3784 3625 3761 3742 3522 3423 3733
1625.000  3732 3606 3565 3593 3517 3609 3456 3582
1633.000  3434 3557 3590 3459 3440 3680 3353 3263
1641.000  3570 3377 3577 3521 3455 3381 3376 3473
1649.000  3472 3552 3363 3485 3354 3432 3518 3331
1657.000  3256 3400 3340 3304 3445 3274 3504 3281
1665.000  3221 3336 3301 3310 3268 3283 3265 3271
1673.000  3208 3407 3251 3338 3268 3367 3183 3222
1681.000  3110 3097 3111 3173 3257 3172 3132 3104
1689.000  3168 2981 3121 3211 3265 3191 3182 3417
1697.000  3389 3210 3315 3143 3249 3116 2970 3210
1705.000  3165 3389 3047 3168 3081 3236 3151 3304
1713.000  3181 3294 3260 3128 3067 3171 3234 3140
1721.000  3250 2966 2924 3148 3190 3230 3136 3236
1729.000  3065 2988 3036 2997 3151 3040 3030 3116
1737.000  3145 3099 3131 3195 3071 3175 3042 3153
1745.000  2954 3194 3291 3121 3149 3074 3128 2931
1753.000  3121 2918 2958 3152 2862 2973 2999 3232
1761.000  3118 2909 2935 3116 2949 2864 2988 2943
1769.000  3174 2999 2878 3163 2999 3025 3118 2950
1777.000  2895 3062 3102 3001 3021 3142 3057 3017
1785.000  3083 2966 2958 2968 2902 3118 2837 2894
1793.000  2917 2954 3059 2919 2904 2802 2864 2900
1801.000  2963 2816 2914 3018 3141 2797 3016 2976
1809.000  3082 2802 2874 2962 2950 3055 2942 2834
1817.000  2897 2760 2866 2854 2989 2946 2768 2958
1825.000  2847 2732 2829 2821 2962 2741 2762 2826
1833.000  2836 2834 2876 2856 2805 2812 2931 2876
1841.000  2952 2909 2754 3042 2798 2894 2725 2703
1849.000  2929 2756 2817 2826 2793 2754 2855 2717
1857.000  2972 2959 2674 2784 2568 2863 2808 2945
1865.000  2837 2868 2724 2726 2940 2640 2692 2914
1873.000  2674 2846 2657 2715 2516 2788 2589 2905
1881.000  2827 2690 2733 2981 2828 2793 2925 2610
1889.000  2869 2721 2731 2849 2699 2666 2702 2815
1897.000  2754 2780 2577 2989 2515 2751 2745 2771
1905.000  2850 2740 2660 2575 2675 2584 2570 2614
1913.000  2650 2503 2603 2651 2562 2721 2607 2644
1921.000  2511 2626 2594 2653 2714 2673 2386 2633
1929.000  2567 2375 2474 2468 2661 2575 2470 2489
1937.000  2452 2560 2513 2448 2493 2604 2596 2504
1945.000  2395 2528 2438 2388 2460 2410 2397 2388
1953.000  2412 2418 2432 2536 2450 2457 2439 2352
1961.000  2463 2615 2272 2210 2343 2279 2263 2473
1969.000  2455 2300 2459 2324 2328 2265 2295 2322
1977.000  1970 2267 2168 2312 2258 2043 2424 2058
1985.000  2241 2158 2319 2211 2135 2130 2145 2372
1993.000  2207 2108 2236 2266 2101 2265 2275 1993
2001.000  2025 2069 1911 2052 2086 2089 1985 2025
2009.000  1731 2002 1915 1877 1954 1821 1833 1813
2017.000  1723 1786 1786 1993 1758 1777 1704 1784
2025.000  1782 1811 1642 1741 1671 1659 1684 1846
2033.000  1684 1788 1728 1785 1818 1646 1694 1755
2041.000  1842 1755 1711 1684 1839 1848 1865 1797
##END=
